Wavelength A B
   3.9510000e-01   3.0630000e-02   3.4358000e-02
   4.0910000e-01   3.0757000e-02   3.3929000e-02
   4.2180000e-01   3.1465000e-02   3.3717000e-02
   4.3380000e-01   3.4071000e-02   3.4939000e-02
   4.4880000e-01   3.7406000e-02   3.6489000e-02
   4.6130000e-01   3.8369000e-02   3.6802000e-02
   4.7330000e-01   3.8553000e-02   3.6182000e-02
   4.8730000e-01   3.8316000e-02   3.5771000e-02
   5.0130000e-01   3.9949000e-02   3.6999000e-02
   5.1330000e-01   4.5300000e-02   4.1763000e-02
   5.2730000e-01   6.8382000e-02   6.1719000e-02
   5.3930000e-01   8.3492000e-02   7.4471000e-02
   5.5330000e-01   8.7290000e-02   7.7068000e-02
   5.6730000e-01   7.6834000e-02   6.6796000e-02
   5.7930000e-01   6.0719000e-02   5.3110000e-02
   5.9330000e-01   5.3823000e-02   4.6437000e-02
   6.0590000e-01   5.1076000e-02   4.4773000e-02
   6.1870000e-01   4.6064000e-02   4.0123000e-02
   6.3170000e-01   4.4443000e-02   3.8246000e-02
   6.4570000e-01   4.0640000e-02   3.5981000e-02
   6.5970000e-01   3.7884000e-02   3.4071000e-02
   6.7320000e-01   3.5609000e-02   3.1127000e-02
   6.8520000e-01   3.5560000e-02   3.1366000e-02
   6.9720000e-01   5.5866000e-02   4.9953000e-02
   7.1200000e-01   1.7139900e-01   1.6429000e-01
   7.2400000e-01   2.9433300e-01   2.9228600e-01
   7.3800000e-01   4.0152300e-01   4.0799100e-01
   7.5050000e-01   4.4228200e-01   4.5349600e-01
   7.6550000e-01   4.5709400e-01   4.7020100e-01
   7.7750000e-01   4.6061900e-01   4.7404900e-01
   7.8900000e-01   4.6133100e-01   4.7468700e-01
   8.0650000e-01   4.6209200e-01   4.7646300e-01
   8.1650000e-01   4.6266900e-01   4.7651900e-01
   8.2800000e-01   4.6252200e-01   4.7671200e-01
   8.4300000e-01   4.6295700e-01   4.7604400e-01
   8.5900000e-01   4.6253700e-01   4.7443700e-01
   8.7100000e-01   4.5946200e-01   4.7272000e-01
   8.8300000e-01   4.5634900e-01   4.7159300e-01
   8.9400000e-01   4.5703600e-01   4.7177500e-01
   9.1400000e-01   4.5299400e-01   4.6696100e-01
   9.2400000e-01   4.5169800e-01   4.6629300e-01
   9.3300000e-01   4.5131900e-01   4.6570600e-01
   9.4900000e-01   4.4399900e-01   4.5809700e-01
   9.6400000e-01   4.4065100e-01   4.5547000e-01
   9.7600000e-01   4.3816800e-01   4.5309100e-01
   9.8800000e-01   4.3714800e-01   4.5035500e-01
   1.0000000e+00   4.3614000e-01   4.5092300e-01
   1.0180000e+00   4.3637400e-01   4.5032800e-01
   1.0285000e+00   4.3865500e-01   4.5360300e-01
   1.0435000e+00   4.3865400e-01   4.5170400e-01
   1.0535000e+00   4.4029300e-01   4.5373000e-01
   1.0685000e+00   4.3998900e-01   4.5283900e-01
   1.0835000e+00   4.3824200e-01   4.5208300e-01
   1.0935000e+00   4.3755600e-01   4.5122100e-01
   1.1085000e+00   4.3532400e-01   4.4801600e-01
   1.1185000e+00   4.3408100e-01   4.4757100e-01
   1.1335000e+00   4.2734800e-01   4.4127400e-01
   1.1485000e+00   4.1509400e-01   4.2778500e-01
   1.1585000e+00   4.0781800e-01   4.2082500e-01
   1.1735000e+00   4.0277200e-01   4.1549600e-01
   1.1885000e+00   4.0054100e-01   4.1238400e-01
   1.1985000e+00   3.9754100e-01   4.1028900e-01
   1.2135000e+00   3.9833300e-01   4.1024700e-01
   1.2285000e+00   4.0077500e-01   4.1332900e-01
   1.2385000e+00   4.0331400e-01   4.1443100e-01
   1.2535000e+00   4.0400600e-01   4.1628400e-01
   1.2685000e+00   4.0330700e-01   4.1537600e-01
   1.2785000e+00   4.0317000e-01   4.1533500e-01
   1.2935000e+00   4.0113100e-01   4.1279100e-01
   1.3035000e+00   3.9841700e-01   4.0985700e-01
   1.3185000e+00   3.8966300e-01   4.0164400e-01
   1.3335000e+00   3.7533500e-01   3.8638900e-01
   1.3435000e+00   3.6398000e-01   3.7500000e-01
   1.3585000e+00   3.5085800e-01   3.6237900e-01
   1.3735000e+00   3.3208900e-01   3.4294200e-01
   1.3835000e+00   3.0547500e-01   3.1598700e-01
   1.3985000e+00   2.2933400e-01   2.3846900e-01
   1.4135000e+00   1.6356300e-01   1.6929500e-01
   1.4235000e+00   1.4120900e-01   1.4856000e-01
   1.4385000e+00   1.2752000e-01   1.3243400e-01
   1.4535000e+00   1.2317600e-01   1.2854200e-01
   1.4635000e+00   1.2551900e-01   1.3024400e-01
   1.4785000e+00   1.3488600e-01   1.4063400e-01
   1.4885000e+00   1.4587300e-01   1.5124000e-01
   1.5035000e+00   1.6479600e-01   1.6804600e-01
   1.5185000e+00   1.8187300e-01   1.8818100e-01
   1.5285000e+00   1.9183600e-01   1.9901200e-01
   1.5460000e+00   2.1095300e-01   2.1993400e-01
   1.5580000e+00   2.2275000e-01   2.2912200e-01
   1.5705000e+00   2.3197300e-01   2.3869700e-01
   1.5845000e+00   2.4177500e-01   2.4944600e-01
   1.5985000e+00   2.5076900e-01   2.5820800e-01
   1.6125000e+00   2.5795900e-01   2.6533300e-01
   1.6195000e+00   2.6099400e-01   2.6856700e-01
   1.6335000e+00   2.6681600e-01   2.7522100e-01
   1.6475000e+00   2.6808700e-01   2.7716800e-01
   1.6615000e+00   2.6577200e-01   2.7395700e-01
   1.6760000e+00   2.6119200e-01   2.7092100e-01
   1.6920000e+00   2.6062100e-01   2.6797900e-01
   1.7000000e+00   2.6278200e-01   2.6670300e-01
   1.7160000e+00   2.5424400e-01   2.6187300e-01
   1.7320000e+00   2.4724600e-01   2.5259000e-01
   1.7400000e+00   2.4741100e-01   2.5223500e-01
   1.7560000e+00   2.3932000e-01   2.4647700e-01
   1.7640000e+00   2.3667000e-01   2.4118000e-01
   1.7800000e+00   2.3134200e-01   2.3783100e-01
   1.7960000e+00   2.3169600e-01   2.3772500e-01
   1.8050000e+00   2.3201200e-01   2.3862700e-01
   1.8250000e+00   2.3314800e-01   2.3900800e-01
   1.8350000e+00   2.3297500e-01   2.4002300e-01
   1.8450000e+00   2.2916800e-01   2.3486400e-01
   1.8650000e+00   1.9219900e-01   1.9923800e-01
   1.8750000e+00   1.5208000e-01   1.5702900e-01
   1.8850000e+00   1.0172200e-01   1.0455200e-01
   1.8950000e+00   5.7597000e-02   5.7378000e-02
   1.9150000e+00   2.9393000e-02   2.7601000e-02
   1.9250000e+00   2.8652000e-02   2.4957000e-02
   1.9350000e+00   2.9026000e-02   2.6013000e-02
   1.9550000e+00   3.1463000e-02   2.6675000e-02
   1.9650000e+00   3.3572000e-02   2.9295000e-02
   1.9750000e+00   3.6396000e-02   3.4949000e-02
   1.9950000e+00   4.8426000e-02   4.6668000e-02
   2.0050000e+00   5.1704000e-02   5.0989000e-02
   2.0150000e+00   5.5434000e-02   5.5159000e-02
   2.0350000e+00   6.7567000e-02   6.4766000e-02
   2.0450000e+00   7.1086000e-02   7.5135000e-02
   2.0550000e+00   7.3463000e-02   7.2764000e-02
   2.0750000e+00   8.0628000e-02   8.1857000e-02
   2.0850000e+00   8.5640000e-02   8.7968000e-02
   2.0950000e+00   9.0707000e-02   9.1687000e-02
   2.1150000e+00   9.7592000e-02   9.8000000e-02
   2.1250000e+00   1.0191600e-01   1.0384200e-01
   2.1350000e+00   1.0269100e-01   1.0537100e-01
   2.1550000e+00   1.1140600e-01   1.1102600e-01
   2.1650000e+00   1.1278100e-01   1.1547800e-01
   2.1750000e+00   1.1746300e-01   1.1647800e-01
   2.1950000e+00   1.2345400e-01   1.2668000e-01
   2.2050000e+00   1.2700700e-01   1.2787100e-01
   2.2150000e+00   1.3028900e-01   1.3092900e-01
   2.2250000e+00   1.2961100e-01   1.3150200e-01
   2.2450000e+00   1.2431000e-01   1.2901600e-01
   2.2550000e+00   1.1621400e-01   1.1855100e-01
   2.2650000e+00   1.0509800e-01   1.1229200e-01
   2.2850000e+00   9.2774000e-02   1.0446000e-01
   2.2950000e+00   8.9440000e-02   9.8884000e-02
   2.3050000e+00   8.6920000e-02   9.0395000e-02
   2.3250000e+00   8.4854000e-02   8.4628000e-02
   2.3350000e+00   8.0200000e-02   8.1218000e-02
   2.3450000e+00   7.7262000e-02   7.5818000e-02
   2.3650000e+00   6.8919000e-02   6.9723000e-02
   2.3750000e+00   6.7780000e-02   6.6899000e-02
   2.3860000e+00   6.2119000e-02   6.2248000e-02
   2.4000000e+00   5.7879000e-02   5.7361000e-02
   2.4180000e+00   5.0705000e-02   4.8761000e-02
   2.4180000e+00   5.0705000e-02   4.8761000e-02
   2.4400000e+00   4.2295000e-02   4.0979000e-02
   2.4660000e+00   3.6362000e-02   3.2617000e-02
   2.4660000e+00   3.6362000e-02   3.2617000e-02
